  TIME(SEC) ACCEL(M/S2) VEL(M/S)  ALT(M)    RNG(M)  FLTEL(DEG)  DRAG(N)
     0.050     0.000     0.000     0.000     0.000    85.000     0.000
     0.100     8.502     0.141     0.002     0.000    85.000     0.000
     0.150    23.165     0.933     0.025     0.002    85.000     0.000
     0.200    63.664     3.103     0.118     0.010    85.000     0.000
     0.250   104.336     7.261     0.367     0.032    85.000     0.004
     0.300   104.581    12.565     0.861     0.075    85.000     0.023
     0.350    84.362    17.284     1.608     0.141    85.000     0.068
     0.400    63.966    20.987     2.566     0.226    84.871     0.128
     0.450    52.286    23.887     3.685     0.327    84.758     0.189
     0.500    40.559    26.202     4.935     0.443    84.654     0.245
     0.550    38.159    28.165     6.288     0.571    84.557     0.295
     0.600    35.761    30.008     7.736     0.710    84.465     0.340
     0.650    35.445    31.784     9.274     0.860    84.377     0.386
     0.700    35.123    33.543    10.899     1.022    84.292     0.433
     0.750    34.725    35.284    12.611     1.194    84.210     0.483
     0.800    34.316    37.004    14.409     1.377    84.131     0.534
     0.850    33.897    38.704    16.292     1.572    84.055     0.587
     0.900    33.467    40.382    18.258     1.778    83.981     0.642
     0.950    33.028    42.039    20.307     1.996    83.909     0.699
     1.000    32.578    43.672    22.438     2.224    83.839     0.757
     1.050    32.120    45.283    24.649     2.464    83.771     0.817
     1.100    31.653    46.871    26.939     2.716    83.704     0.878
     1.150    31.178    48.435    29.307     2.978    83.639     0.941
     1.200    30.695    49.975    31.752     3.252    83.576     1.004
     1.250    30.205    51.490    34.273     3.537    83.514     1.069
     1.300    29.708    52.981    36.868     3.834    83.453     1.134
     1.350    29.204    54.447    39.536     4.142    83.393     1.200
     1.400    28.694    55.887    42.276     4.460    83.334     1.267
     1.450    28.179    57.301    45.086     4.790    83.276     1.335
     1.500    27.658    58.689    47.966     5.131    83.219     1.403
     1.550    27.133    60.051    50.913     5.483    83.163     1.471
     1.600    26.603    61.387    53.928     5.846    83.108     1.540
     1.650    23.710    62.637    57.006     6.220    83.053     1.609
     1.700    20.814    63.743    60.143     6.603    83.000     1.674
     1.750     1.540    64.295    63.324     6.995    82.946     1.733
     1.800   -17.719    63.888    66.508     7.391    82.892     1.763
     1.850   -17.615    63.007    69.656     7.785    82.837     1.740
     1.900   -17.395    62.137    72.760     8.176    82.781     1.692
     1.950   -17.181    61.278    75.820     8.566    82.724     1.645
     2.000   -16.972    60.429    78.838     8.953    82.665     1.599
     2.050   -16.769    59.591    81.814     9.337    82.605     1.555
     2.100   -16.572    58.762    84.748     9.720    82.544     1.511
     2.150   -16.379    57.943    87.641    10.100    82.481     1.469
     2.200   -16.191    57.133    90.493    10.478    82.417     1.428
     2.250   -16.008    56.333    93.304    10.854    82.351     1.388
     2.300   -15.829    55.541    96.076    11.228    82.284     1.349
     2.350   -15.655    54.759    98.808    11.599    82.215     1.311
     2.400   -15.486    53.984   101.502    11.969    82.145     1.274
     2.450   -15.320    53.218   104.156    12.337    82.073     1.238
     2.500   -15.159    52.460   106.773    12.703    82.000     1.203
     2.550   -15.001    51.710   109.352    13.067    81.924     1.168
     2.600   -14.847    50.968   111.893    13.430    81.847     1.135
     2.650   -14.697    50.233   114.397    13.790    81.768     1.102
     2.700   -14.551    49.505   116.864    14.149    81.687     1.070
     2.750   -14.408    48.784   119.296    14.506    81.604     1.039
     2.800   -14.269    48.071   121.691    14.861    81.519     1.009
     2.850   -14.132    47.364   124.050    15.215    81.432     0.979
     2.900   -13.999    46.664   126.375    15.567    81.342     0.951
     2.950   -13.870    45.971   128.664    15.917    81.251     0.922
     3.000   -13.743    45.283   130.918    16.266    81.157     0.895
     3.050   -13.619    44.602   133.138    16.613    81.060     0.868
     3.100   -13.498    43.927   135.324    16.959    80.961     0.842
     3.150   -13.379    43.258   137.477    17.304    80.859     0.817
     3.200   -13.264    42.595   139.596    17.646    80.755     0.792
     3.250   -13.151    41.937   141.681    17.988    80.647     0.768
     3.300   -13.040    41.285   143.734    18.328    80.537     0.744
     3.350   -12.932    40.639   145.754    18.667    80.424     0.721
     3.400   -12.827    39.997   147.741    19.004    80.307     0.698
     3.450   -12.723    39.361   149.696    19.340    80.187     0.676
     3.500   -12.622    38.730   151.620    19.675    80.064     0.655
     3.550   -12.523    38.103   153.511    20.008    79.937     0.634
     3.600   -12.427    37.482   155.372    20.341    79.807     0.613
     3.650   -12.332    36.865   157.201    20.672    79.672     0.593
     3.700   -12.240    36.253   158.998    21.002    79.533     0.574
     3.750   -12.149    35.646   160.766    21.330    79.391     0.555
     3.800   -12.060    35.043   162.502    21.658    79.243     0.536
     3.850   -11.973    34.444   164.208    21.984    79.091     0.518
     3.900   -11.888    33.849   165.884    22.310    78.935     0.501
     3.950   -11.805    33.259   167.530    22.634    78.773     0.483
     4.000   -11.723    32.673   169.147    22.957    78.606     0.467
     4.050   -11.643    32.090   170.733    23.279    78.433     0.450
     4.100   -11.564    31.512   172.291    23.601    78.255     0.434
     4.150   -11.487    30.937   173.819    23.921    78.071     0.419
     4.200   -11.411    30.367   175.318    24.240    77.880     0.403
     4.250   -11.337    29.800   176.788    24.558    77.682     0.389
     4.300   -11.264    29.236   178.229    24.876    77.478     0.374
     4.350   -11.192    28.676   179.642    25.192    77.266     0.360
     4.400   -11.122    28.120   181.026    25.508    77.046     0.346
     4.450   -11.052    27.567   182.382    25.823    76.818     0.333
     4.500   -10.984    27.018   183.710    26.137    76.581     0.320
     4.550   -10.917    26.472   185.011    26.450    76.336     0.307
     4.600   -10.850    25.929   186.283    26.762    76.080     0.295
     4.650   -10.785    25.389   187.527    27.073    75.815     0.283
     4.700   -10.720    24.853   188.744    27.384    75.538     0.271
     4.750   -10.656    24.320   189.934    27.694    75.250     0.260
     4.800   -10.593    23.790   191.096    28.003    74.950     0.249
     4.850   -10.530    23.263   192.231    28.312    74.637     0.238
     4.900   -10.467    22.739   193.340    28.620    74.310     0.228
     4.950   -10.405    22.219   194.421    28.927    73.969     0.218
     5.000   -10.344    21.701   195.475    29.233    73.612     0.208
     5.050   -10.282    21.187   196.503    29.539    73.239     0.198
     5.100   -10.220    20.675   197.504    29.844    72.847     0.189
     5.150   -10.158    20.167   198.478    30.149    72.437     0.180
     5.200   -10.096    19.661   199.426    30.453    72.007     0.171
     5.250   -10.034    19.159   200.348    30.756    71.555     0.163
     5.300    -9.970    18.660   201.244    31.059    71.079     0.154
     5.350    -9.906    18.164   202.114    31.361    70.578     0.146
     5.400    -9.841    17.671   202.957    31.663    70.050     0.139
     5.450    -9.774    17.181   203.775    31.964    69.493     0.131
     5.500    -9.706    16.695   204.566    32.265    68.905     0.124
     5.550    -9.636    16.212   205.332    32.565    68.282     0.117
     5.600    -9.563    15.733   206.073    32.865    67.622     0.110
     5.650    -9.487    15.258   206.787    33.164    66.922     0.104
     5.700    -9.409    14.786   207.476    33.463    66.178     0.098
     5.750    -9.326    14.318   208.140    33.761    65.387     0.092
     5.800    -9.239    13.855   208.778    34.059    64.544     0.086
     5.850    -9.147    13.396   209.391    34.357    63.643     0.081
     5.900    -9.049    12.941   209.978    34.654    62.681     0.075
     5.950    -8.944    12.492   210.541    34.951    61.650     0.070
     6.000    -8.830    12.048   211.078    35.247    60.544     0.066
     6.050    -8.708    11.610   211.590    35.543    59.356     0.061
     6.100    -8.574    11.179   212.077    35.839    58.076     0.057
     6.150    -8.429    10.754   212.539    36.134    56.696     0.052
     6.200    -8.268    10.337   212.975    36.429    55.206     0.049
     6.250    -8.091     9.928   213.387    36.724    53.593     0.045
     6.300    -7.894     9.529   213.775    37.019    51.845     0.041
     6.350    -7.674     9.140   214.137    37.313    49.947     0.038
     6.400    -7.429     8.763   214.474    37.607    47.886     0.035
     6.450    -7.153     8.398   214.787    37.901    45.645     0.032
     6.500    -6.844     8.049   215.075    38.194    43.207     0.030
     6.550    -6.495     7.715   215.338    38.487    40.554     0.027
     6.600    -6.102     7.400   215.576    38.780    37.672     0.025
     6.650    -5.661     7.106   215.790    39.073    34.544     0.023
     6.700    -5.167     6.835   215.979    39.365    31.160     0.021
     6.750    -4.616     6.591   216.144    39.658    27.514     0.020
     6.800    -4.007     6.375   216.284    39.950    23.606     0.018
     6.850    -3.341     6.191   216.399    40.242    19.449     0.017
     6.900    -2.620     6.042   216.490    40.534    15.065     0.016
     6.950    -1.854     5.930   216.556    40.825    10.490     0.015
     7.000    -1.053     5.858   216.598    41.117     5.773     0.015
     7.050    -0.232     5.825   216.615    41.408     0.974     0.014
     7.100     0.592     5.834   216.608    41.699    -3.842     0.014
     7.150     1.401     5.884   216.576    41.990    -8.606     0.014
     7.200     2.181     5.974   216.520    42.281   -13.257     0.015
     7.250     2.918     6.102   216.439    42.572   -17.738     0.015
     7.300     3.602     6.265   216.334    42.862   -22.009     0.016
     7.350     4.227     6.461   216.204    43.153   -26.040     0.016
     7.400     4.793     6.686   216.050    43.443   -29.814     0.018
     7.450     5.299     6.939   215.872    43.733   -33.326     0.019
     7.500     5.748     7.215   215.669    44.023   -36.578     0.020
     7.550     6.145     7.512   215.442    44.312   -39.579     0.022
     7.600     6.494     7.828   215.190    44.602   -42.344     0.024
     7.650     6.799     8.161   214.915    44.891   -44.886     0.026
     7.700     7.067     8.507   214.614    45.180   -47.224     0.028
     7.750     7.300     8.866   214.290    45.469   -49.374     0.030
     7.800     7.504     9.236   213.942    45.757   -51.353     0.033
     7.850     7.682     9.616   213.569    46.045   -53.176     0.036
     7.900     7.838    10.003   213.172    46.333   -54.858     0.039
     7.950     7.973    10.398   212.751    46.621   -56.411     0.042
     8.000     8.091    10.800   212.306    46.909   -57.849     0.045
     8.050     8.194    11.206   211.836    47.196   -59.182     0.049
     8.100     8.284    11.618   211.343    47.483   -60.419     0.053
     8.150     8.361    12.034   210.826    47.769   -61.570     0.057
     8.200     8.428    12.453   210.285    48.056   -62.643     0.061
     8.250     8.486    12.875   209.720    48.342   -63.644     0.065
     8.300     8.536    13.300   209.131    48.627   -64.581     0.070
     8.350     8.578    13.728   208.519    48.913   -65.458     0.074
     8.400     8.613    14.157   207.883    49.197   -66.282     0.079
     8.450     8.643    14.588   207.223    49.482   -67.055     0.084
     8.500     8.667    15.020   206.539    49.766   -67.783     0.089
     8.550     8.686    15.453   205.832    50.050   -68.470     0.095
     8.600     8.701    15.887   205.102    50.333   -69.118     0.100
     8.650     8.712    16.322   204.348    50.616   -69.731     0.106
     8.700     8.719    16.757   203.571    50.899   -70.311     0.112
     8.750     8.723    17.193   202.770    51.181   -70.860     0.118
     8.800     8.724    17.628   201.947    51.462   -71.382     0.124
     8.850     8.721    18.063   201.100    51.744   -71.878     0.131
     8.900     8.717    18.499   200.230    52.024   -72.349     0.137
     8.950     8.709    18.934   199.337    52.304   -72.799     0.144
     9.000     8.699    19.368   198.421    52.584   -73.227     0.151
     9.050     8.688    19.802   197.483    52.863   -73.636     0.158
     9.100     8.674    20.235   196.521    53.142   -74.026     0.165
     9.150     8.658    20.668   195.537    53.420   -74.400     0.172
     9.200     8.640    21.099   194.531    53.698   -74.757     0.180
     9.250     8.621    21.530   193.502    53.975   -75.100     0.187
     9.300     8.600    21.960   192.450    54.251   -75.428     0.195
     9.350     8.578    22.388   191.376    54.527   -75.743     0.203
     9.400     8.554    22.815   190.280    54.803   -76.046     0.211
     9.450     8.529    23.242   189.162    55.078   -76.337     0.219
     9.500     8.503    23.667   188.022    55.352   -76.617     0.227
     9.550     8.475    24.090   186.860    55.625   -76.886     0.236
     9.600     8.446    24.512   185.676    55.898   -77.146     0.244
     9.650     8.416    24.933   184.470    56.171   -77.396     0.253
     9.700     8.385    25.352   183.243    56.442   -77.637     0.262
     9.750     8.353    25.769   181.994    56.713   -77.870     0.271
     9.800     8.321    26.185   180.723    56.984   -78.095     0.280
     9.850     8.287    26.599   179.432    57.253   -78.313     0.289
     9.900     8.252    27.012   178.119    57.523   -78.523     0.298
     9.950     8.216    27.422   176.785    57.791   -78.727     0.308
    10.000     8.180    27.831   175.429    58.059   -78.924     0.317
    10.050     8.143    28.238   174.053    58.326   -79.114     0.327
    10.100     8.105    28.643   172.656    58.592   -79.299     0.336
    10.150     8.066    29.046   171.239    58.857   -79.478     0.346
    10.200     8.027    29.448   169.801    59.122   -79.652     0.356
    10.250     7.987    29.847   168.342    59.386   -79.821     0.366
    10.300     7.946    30.244   166.863    59.650   -79.985     0.376
    10.350     7.905    30.639   165.364    59.912   -80.144     0.386
    10.400     7.863    31.032   163.844    60.174   -80.299     0.396
    10.450     7.821    31.423   162.305    60.435   -80.449     0.406
    10.500     7.778    31.812   160.746    60.696   -80.595     0.417
    10.550     7.734    32.198   159.167    60.955   -80.737     0.427
    10.600     7.690    32.583   157.568    61.214   -80.876     0.438
    10.650     7.646    32.965   155.950    61.472   -81.011     0.448
    10.700     7.601    33.345   154.312    61.729   -81.142     0.459
    10.750     7.556    33.723   152.655    61.985   -81.270     0.470
    10.800     7.510    34.098   150.979    62.241   -81.395     0.481
    10.850     7.464    34.471   149.284    62.495   -81.516     0.491
    10.900     7.417    34.842   147.570    62.749   -81.635     0.502
    10.950     7.371    35.211   145.837    63.002   -81.751     0.513
    11.000     7.323    35.577   144.085    63.254   -81.864     0.524
    11.050     7.276    35.940   142.315    63.506   -81.974     0.535
    11.100     7.228    36.302   140.526    63.756   -82.082     0.547
    11.150     7.180    36.661   138.719    64.006   -82.187     0.558
    11.200     7.132    37.017   136.894    64.255   -82.290     0.569
    11.250     7.083    37.371   135.051    64.502   -82.391     0.580
    11.300     7.034    37.723   133.190    64.749   -82.489     0.591
    11.350     6.985    38.072   131.311    64.995   -82.585     0.603
    11.400     6.936    38.419   129.415    65.241   -82.680     0.614
    11.450     6.886    38.763   127.501    65.485   -82.772     0.625
    11.500     6.836    39.105   125.569    65.728   -82.862     0.637
    11.550     6.786    39.444   123.620    65.971   -82.950     0.648
    11.600     6.736    39.781   121.655    66.212   -83.037     0.660
    11.650     6.686    40.115   119.672    66.453   -83.121     0.671
    11.700     6.636    40.447   117.672    66.693   -83.204     0.683
    11.750     6.585    40.776   115.656    66.932   -83.286     0.694
    11.800     6.535    41.103   113.622    67.170   -83.365     0.706
    11.850     6.484    41.427   111.573    67.407   -83.443     0.717
    11.900     6.433    41.749   109.507    67.643   -83.520     0.729
    11.950     6.383    42.068   107.425    67.878   -83.595     0.740
    12.000     6.332    42.385   105.326    68.112   -83.669     0.752
    12.050     6.281    42.699   103.212    68.345   -83.741     0.763
    12.100     6.230    43.010   101.082    68.577   -83.812     0.775
    12.150     6.179    43.319    98.936    68.809   -83.882     0.786
    12.200     6.128    43.625    96.775    69.039   -83.950     0.798
    12.250     6.077    43.929    94.598    69.268   -84.018     0.809
    12.300     6.026    44.231    92.406    69.497   -84.084     0.821
    12.350     5.975    44.529    90.199    69.724   -84.148     0.832
    12.400     5.924    44.826    87.976    69.951   -84.212     0.844
    12.450     5.873    45.119    85.739    70.176   -84.275     0.855
    12.500     5.822    45.410    83.487    70.401   -84.336     0.867
    12.550     5.771    45.699    81.220    70.625   -84.397     0.878
    12.600     5.721    45.985    78.939    70.847   -84.456     0.889
    12.650     5.670    46.268    76.643    71.069   -84.515     0.901
    12.700     5.619    46.549    74.333    71.289   -84.572     0.912
    12.750     5.569    46.828    72.009    71.509   -84.629     0.924
    12.800     5.518    47.104    69.671    71.728   -84.685     0.935
    12.850     5.468    47.377    67.319    71.945   -84.739     0.946
    12.900     5.418    47.648    64.953    72.162   -84.793     0.957
    12.950     5.368    47.916    62.574    72.378   -84.846     0.969
    13.000     5.318    48.182    60.181    72.592   -84.898     0.980
    13.050     5.268    48.446    57.775    72.806   -84.950     0.991
    13.100     5.218    48.707    55.356    73.019   -85.001     1.002
    13.150     5.169    48.965    52.923    73.231   -85.050     1.013
    13.200     5.119    49.221    50.477    73.441   -85.099     1.024
    13.250     5.070    49.475    48.019    73.651   -85.148     1.035
    13.300     5.021    49.726    45.548    73.860   -85.195     1.046
    13.350     4.972    49.974    43.064    74.068   -85.242     1.057
    13.400     4.923    50.220    40.568    74.274   -85.289     1.068
    13.450     4.875    50.464    38.059    74.480   -85.334     1.079
    13.500     4.827    50.706    35.538    74.685   -85.379     1.090
    13.550     4.779    50.945    33.005    74.888   -85.423     1.100
    13.600     4.731    51.181    30.460    75.091   -85.467     1.111
    13.650     4.683    51.415    27.903    75.293   -85.510     1.122
    13.700     4.635    51.647    25.334    75.494   -85.553     1.132
    13.750     4.588    51.876    22.754    75.693   -85.594     1.143
    13.800     4.541    52.104    20.162    75.892   -85.636     1.153
    13.850     4.494    52.328    17.558    76.090   -85.676     1.164
    13.900     4.448    52.551    14.944    76.287   -85.717     1.174
    13.950     4.401    52.771    12.318    76.482   -85.756     1.184
    14.000     4.355    52.989     9.681    76.677   -85.795     1.195
    14.050     4.309    53.204     7.034    76.871   -85.834     1.205
    14.100     4.264    53.417     4.375    77.064   -85.872     1.215
    14.150     4.218    53.628     1.706    77.255   -85.910     1.225
    14.200     4.173    53.837    -0.974    77.446   -85.947     1.235
